#K-Path(1/A) Energy-Level(eV)
# NKPTS & NBANDS:  60  40
# Band-Index    1
   0.00000     -8.803547
   0.05232     -8.788077
   0.10465     -8.741812
   0.15697     -8.665281
   0.20930     -8.559367
   0.26162     -8.425304
   0.31395     -8.264759
   0.36627     -8.079765
   0.41860     -7.872869
   0.47092     -7.647216
   0.52325     -7.406541
   0.57557     -7.155476
   0.62790     -6.899812
   0.68022     -6.646917
   0.73255     -6.406589
   0.78487     -6.191871
   0.83720     -6.018665
   0.88952     -5.899948
   0.94185     -5.855322
   0.99417     -5.855511
   0.99417     -5.855511
   1.04650     -5.838966
   1.09882     -5.789569
   1.15115     -5.708080
   1.20347     -5.595805
   1.25580     -5.459942
   1.30812     -5.327642
   1.36045     -5.200691
   1.41277     -5.107002
   1.46510     -5.074399
   1.51742     -5.101757
   1.56975     -5.164478
   1.62207     -5.241116
   1.67440     -5.319183
   1.72672     -5.391731
   1.77905     -5.454720
   1.83137     -5.505652
   1.88370     -5.542967
   1.93602     -5.565716
   1.98835     -5.573356
   1.98835     -5.573356
   2.06235     -5.558776
   2.13635     -5.523534
   2.21035     -5.487824
   2.28434     -5.469854
   2.35834     -5.487177
   2.43234     -5.563611
   2.50634     -5.722604
   2.58034     -5.971499
   2.65434     -6.293609
   2.72834     -6.658862
   2.80234     -7.037904
   2.87633     -7.407897
   2.95033     -7.752247
   3.02433     -8.059126
   3.09833     -8.319928
   3.17233     -8.528467
   3.24633     -8.680347
   3.32033     -8.772617
   3.39433     -8.803547
 
 
# Band-Index    2
   3.39433     -6.917538
   3.32033     -6.894540
   3.24633     -6.825704
   3.17233     -6.711559
   3.09833     -6.553079
   3.02433     -6.351830
   2.95033     -6.110218
   2.87633     -5.831860
   2.80234     -5.521853
   2.72834     -5.187517
   2.65434     -4.839341
   2.58034     -4.493278
   2.50634     -4.454188
   2.43234     -4.685340
   2.35834     -4.904953
   2.28434     -5.096596
   2.21035     -5.247867
   2.13635     -5.349739
   2.06235     -5.403259
   1.98835     -5.419266
   1.98835     -5.419266
   1.93602     -5.411517
   1.88370     -5.388470
   1.83137     -5.350733
   1.77905     -5.299351
   1.72672     -5.235953
   1.67440     -5.162941
   1.62207     -5.083739
   1.56975     -5.003223
   1.51742     -4.928157
   1.46510     -4.867456
   1.41277     -4.889037
   1.36045     -5.097159
   1.30812     -5.287259
   1.25580     -5.454650
   1.20347     -5.580795
   1.15115     -5.681010
   1.09882     -5.755428
   1.04650     -5.801099
   0.99417     -5.816481
   0.99417     -5.816481
   0.94185     -5.835921
   0.88952     -5.855378
   0.83720     -5.857539
   0.78487     -5.864824
   0.73255     -5.881206
   0.68022     -5.911079
   0.62790     -5.958247
   0.57557     -6.024706
   0.52325     -6.109820
   0.47092     -6.210228
   0.41860     -6.320649
   0.36627     -6.434883
   0.31395     -6.546741
   0.26162     -6.650645
   0.20930     -6.741876
   0.15697     -6.816634
   0.10465     -6.872036
   0.05232     -6.906065
   0.00000     -6.917538
 
 
# Band-Index    3
   0.00000     -5.409451
   0.05232     -5.398314
   0.10465     -5.367576
   0.15697     -5.324930
   0.20930     -5.278035
   0.26162     -5.229938
   0.31395     -5.183504
   0.36627     -5.144381
   0.41860     -5.119833
   0.47092     -5.114955
   0.52325     -5.129205
   0.57557     -5.157077
   0.62790     -5.191140
   0.68022     -5.223917
   0.73255     -5.248044
   0.78487     -5.255706
   0.83720     -5.239654
   0.88952     -5.200023
   0.94185     -5.154982
   0.99417     -5.134814
   0.99417     -5.134814
   1.04650     -5.123379
   1.09882     -5.090195
   1.15115     -5.038785
   1.20347     -4.975581
   1.25580     -4.910484
   1.30812     -4.856583
   1.36045     -4.827369
   1.41277     -4.831223
   1.46510     -4.669191
   1.51742     -4.446209
   1.56975     -4.231802
   1.62207     -4.040977
   1.67440     -4.001617
   1.72672     -4.012262
   1.77905     -4.014583
   1.83137     -4.009405
   1.88370     -3.999326
   1.93602     -3.989137
   1.98835     -3.984746
   1.98835     -3.984746
   2.06235     -3.993234
   2.13635     -4.009898
   2.21035     -4.018240
   2.28434     -4.008035
   2.35834     -3.982082
   2.43234     -3.988793
   2.50634     -4.179496
   2.58034     -4.236846
   2.65434     -4.108711
   2.72834     -4.250365
   2.80234     -4.413954
   2.87633     -4.583033
   2.95033     -4.749126
   3.02433     -4.904601
   3.09833     -5.050700
   3.17233     -5.206556
   3.24633     -5.318927
   3.32033     -5.386768
   3.39433     -5.409451
 
 
# Band-Index    4
   3.39433     -5.313950
   3.32033     -5.295994
   3.24633     -5.242933
   3.17233     -5.157179
   3.09833     -5.042657
   3.02433     -4.852930
   2.95033     -4.615395
   2.87633     -4.341020
   2.80234     -4.033989
   2.72834     -3.991320
   2.65434     -4.053618
   2.58034     -3.951092
   2.50634     -3.815818
   2.43234     -3.712439
   2.35834     -3.594402
   2.28434     -3.539223
   2.21035     -3.547188
   2.13635     -3.564235
   2.06235     -3.563110
   1.98835     -3.552606
   1.98835     -3.552606
   1.93602     -3.572076
   1.88370     -3.611679
   1.83137     -3.656386
   1.77905     -3.708742
   1.72672     -3.780898
   1.67440     -3.888701
   1.62207     -3.983159
   1.56975     -3.958595
   1.51742     -4.079810
   1.46510     -4.218406
   1.41277     -4.292659
   1.36045     -4.300699
   1.30812     -4.272299
   1.25580     -4.238166
   1.20347     -4.215291
   1.15115     -4.207599
   1.09882     -4.210368
   1.04650     -4.216017
   0.99417     -4.218617
   0.99417     -4.218617
   0.94185     -4.222690
   0.88952     -4.235762
   0.83720     -4.255824
   0.78487     -4.280241
   0.73255     -4.305369
   0.68022     -4.326902
   0.62790     -4.340625
   0.57557     -4.370510
   0.52325     -4.464826
   0.47092     -4.558940
   0.41860     -4.657206
   0.36627     -4.771642
   0.31395     -4.900198
   0.26162     -5.026114
   0.20930     -5.135721
   0.15697     -5.220127
   0.10465     -5.275326
   0.05232     -5.304784
   0.00000     -5.313950
 
 
# Band-Index    5
   0.00000     -4.787095
   0.05232     -4.779860
   0.10465     -4.759011
   0.15697     -4.726939
   0.20930     -4.686841
   0.26162     -4.641015
   0.31395     -4.587630
   0.36627     -4.516279
   0.41860     -4.409976
   0.47092     -4.315162
   0.52325     -4.334573
   0.57557     -4.343500
   0.62790     -4.281184
   0.68022     -4.206676
   0.73255     -4.156969
   0.78487     -4.137634
   0.83720     -4.146889
   0.88952     -4.175016
   0.94185     -4.205343
   0.99417     -4.218162
   0.99417     -4.218162
   1.04650     -4.205754
   1.09882     -4.169716
   1.15115     -4.113899
   1.20347     -4.045613
   1.25580     -3.976487
   1.30812     -3.921335
   1.36045     -3.891849
   1.41277     -3.889157
   1.46510     -3.905405
   1.51742     -3.931025
   1.56975     -3.905320
   1.62207     -3.722790
   1.67440     -3.552223
   1.72672     -3.406820
   1.77905     -3.310009
   1.83137     -3.406116
   1.88370     -3.483246
   1.93602     -3.534433
   1.98835     -3.552606
   1.98835     -3.552606
   2.06235     -3.543604
   2.13635     -3.516826
   2.21035     -3.473027
   2.28434     -3.449944
   2.35834     -3.560983
   2.43234     -3.683634
   2.50634     -3.716184
   2.58034     -3.625563
   2.65434     -3.512873
   2.72834     -3.701032
   2.80234     -4.025495
   2.87633     -4.135931
   2.95033     -4.279656
   3.02433     -4.424621
   3.09833     -4.552587
   3.17233     -4.654931
   3.24633     -4.728448
   3.32033     -4.772465
   3.39433     -4.787095
 
 
# Band-Index    6
   3.39433     -4.134975
   3.32033     -4.118196
   3.24633     -4.072137
   3.17233     -4.005124
   3.09833     -3.913962
   3.02433     -3.801567
   2.95033     -3.672067
   2.87633     -3.531213
   2.80234     -3.390132
   2.72834     -3.416279
   2.65434     -3.358136
   2.58034     -3.129428
   2.50634     -3.180023
   2.43234     -3.259638
   2.35834     -3.340954
   2.28434     -3.413598
   2.21035     -3.345380
   2.13635     -3.244548
   2.06235     -3.283171
   1.98835     -3.349045
   1.98835     -3.349045
   1.93602     -3.315369
   1.88370     -3.234623
   1.83137     -3.211763
   1.77905     -3.293183
   1.72672     -3.217711
   1.67440     -3.219411
   1.62207     -3.208714
   1.56975     -3.185661
   1.51742     -3.150932
   1.46510     -3.106107
   1.41277     -3.067670
   1.36045     -3.134653
   1.30812     -3.169077
   1.25580     -3.160444
   1.20347     -3.147984
   1.15115     -3.132080
   1.09882     -3.112857
   1.04650     -3.098241
   0.99417     -3.092861
   0.99417     -3.092861
   0.94185     -3.083708
   0.88952     -3.056310
   0.83720     -3.075068
   0.78487     -3.262460
   0.73255     -3.439010
   0.68022     -3.606991
   0.62790     -3.771538
   0.57557     -3.937303
   0.52325     -4.104549
   0.47092     -4.266960
   0.41860     -4.288243
   0.36627     -4.257516
   0.31395     -4.226491
   0.26162     -4.197957
   0.20930     -4.173735
   0.15697     -4.154777
   0.10465     -4.141427
   0.05232     -4.134043
   0.00000     -4.134975
 
 
# Band-Index    7
   0.00000     -4.126849
   0.05232     -4.112497
   0.10465     -4.059574
   0.15697     -3.971276
   0.20930     -3.849230
   0.26162     -3.695319
   0.31395     -3.512078
   0.36627     -3.302946
   0.41860     -3.072557
   0.47092     -2.827131
   0.52325     -2.575054
   0.57557     -2.528855
   0.62790     -2.656727
   0.68022     -2.769842
   0.73255     -2.867083
   0.78487     -2.947627
   0.83720     -3.010852
   0.88952     -2.970064
   0.94185     -2.994317
   0.99417     -3.002430
   0.99417     -3.002430
   1.04650     -3.012125
   1.09882     -3.039715
   1.15115     -3.080375
   1.20347     -3.125145
   1.25580     -3.149391
   1.30812     -3.124073
   1.36045     -3.066385
   1.41277     -3.020304
   1.46510     -2.911441
   1.51742     -2.875486
   1.56975     -2.901711
   1.62207     -2.981152
   1.67440     -3.087779
   1.72672     -3.201357
   1.77905     -3.204417
   1.83137     -3.181736
   1.88370     -3.158898
   1.93602     -3.130302
   1.98835     -3.120429
   1.98835     -3.120429
   2.06235     -3.158309
   2.13635     -3.129533
   2.21035     -3.100365
   2.28434     -3.085515
   2.35834     -3.067677
   2.43234     -3.048927
   2.50634     -3.037189
   2.58034     -3.089419
   2.65434     -3.153992
   2.72834     -3.253238
   2.80234     -3.387250
   2.87633     -3.464805
   2.95033     -3.598352
   3.02433     -3.743587
   3.09833     -3.876755
   3.17233     -3.986859
   3.24633     -4.068326
   3.32033     -4.113077
   3.39433     -4.126849
 
 
# Band-Index    8
   3.39433     -2.422345
   3.32033     -2.434756
   3.24633     -2.469504
   3.17233     -2.520473
   3.09833     -2.580543
   3.02433     -2.643580
   2.95033     -2.705121
   2.87633     -2.762217
   2.80234     -2.812789
   2.72834     -2.854100
   2.65434     -2.876059
   2.58034     -2.802600
   2.50634     -2.648640
   2.43234     -2.715523
   2.35834     -2.768644
   2.28434     -2.728210
   2.21035     -2.931066
   2.13635     -3.111390
   2.06235     -3.118153
   1.98835     -3.120429
   1.98835     -3.120429
   1.93602     -3.129704
   1.88370     -3.154292
   1.83137     -3.126864
   1.77905     -3.000151
   1.72672     -2.869677
   1.67440     -2.853930
   1.62207     -2.882559
   1.56975     -2.868150
   1.51742     -2.812518
   1.46510     -2.893810
   1.41277     -2.986602
   1.36045     -2.979216
   1.30812     -2.909229
   1.25580     -2.833409
   1.20347     -2.755710
   1.15115     -2.681345
   1.09882     -2.617878
   1.04650     -2.574428
   0.99417     -2.558885
   0.99417     -2.558885
   0.94185     -2.683426
   0.88952     -2.878771
   0.83720     -2.929925
   0.78487     -2.874293
   0.73255     -2.803718
   0.68022     -2.718886
   0.62790     -2.620593
   0.57557     -2.509760
   0.52325     -2.387718
   0.47092     -2.254593
   0.41860     -2.112546
   0.36627     -2.235091
   0.31395     -2.351991
   0.26162     -2.422067
   0.20930     -2.452638
   0.15697     -2.454997
   0.10465     -2.442520
   0.05232     -2.428330
   0.00000     -2.422345
 
 
# Band-Index    9
   0.00000     -1.225016
   0.05232     -1.244915
   0.10465     -1.298697
   0.15697     -1.373104
   0.20930     -1.480099
   0.26162     -1.644608
   0.31395     -1.806038
   0.36627     -1.962549
   0.41860     -2.074526
   0.47092     -2.235333
   0.52325     -2.387393
   0.57557     -2.327229
   0.62790     -2.096252
   0.68022     -1.892926
   0.73255     -1.721620
   0.78487     -1.659508
   0.83720     -1.817725
   0.88952     -1.998788
   0.94185     -2.187845
   0.99417     -2.310825
   0.99417     -2.310825
   1.04650     -2.346051
   1.09882     -2.420743
   1.15115     -2.489532
   1.20347     -2.523776
   1.25580     -2.507721
   1.30812     -2.436882
   1.36045     -2.472118
   1.41277     -2.608696
   1.46510     -2.723795
   1.51742     -2.708634
   1.56975     -2.498515
   1.62207     -2.483116
   1.67440     -2.655639
   1.72672     -2.719375
   1.77905     -2.620803
   1.83137     -2.502856
   1.88370     -2.441552
   1.93602     -2.512149
   1.98835     -2.537883
   1.98835     -2.537883
   2.06235     -2.489046
   2.13635     -2.428197
   2.21035     -2.557087
   2.28434     -2.676297
   2.35834     -2.494866
   2.43234     -2.569904
   2.50634     -2.554150
   2.58034     -2.703205
   2.65434     -2.686168
   2.72834     -2.594438
   2.80234     -2.542248
   2.87633     -2.445869
   2.95033     -2.249740
   3.02433     -1.999098
   3.09833     -1.777380
   3.17233     -1.591074
   3.24633     -1.416481
   3.32033     -1.279870
   3.39433     -1.225016
 
 
# Band-Index   10
   3.39433     -1.225016
   3.32033     -1.235658
   3.24633     -1.296675
   3.17233     -1.468221
   3.09833     -1.725394
   3.02433     -1.962831
   2.95033     -2.141289
   2.87633     -2.309095
   2.80234     -2.462536
   2.72834     -2.506659
   2.65434     -2.568233
   2.58034     -2.579572
   2.50634     -2.502207
   2.43234     -2.326992
   2.35834     -2.493646
   2.28434     -2.428500
   2.21035     -2.377033
   2.13635     -2.373715
   2.06235     -2.340794
   1.98835     -2.310267
   1.98835     -2.310267
   1.93602     -2.333815
   1.88370     -2.401276
   1.83137     -2.340440
   1.77905     -2.250206
   1.72672     -2.228738
   1.67440     -2.212568
   1.62207     -2.292474
   1.56975     -2.288331
   1.51742     -2.138929
   1.46510     -2.048681
   1.41277     -2.163247
   1.36045     -2.317353
   1.30812     -2.317750
   1.25580     -2.148652
   1.20347     -1.967645
   1.15115     -1.777692
   1.09882     -1.582664
   1.04650     -1.672035
   0.99417     -1.719820
   0.99417     -1.719820
   0.94185     -1.711984
   0.88952     -1.688434
   0.83720     -1.649048
   0.78487     -1.593695
   0.73255     -1.528813
   0.68022     -1.435105
   0.62790     -1.393013
   0.57557     -1.505039
   0.52325     -1.600796
   0.47092     -1.855623
   0.41860     -2.068935
   0.36627     -1.909317
   0.31395     -1.745512
   0.26162     -1.591225
   0.20930     -1.456541
   0.15697     -1.350858
   0.10465     -1.278567
   0.05232     -1.237944
   0.00000     -1.225016
 
 
# Band-Index   11
   0.00000     -0.881099
   0.05232     -0.994642
   0.10465     -1.151317
   0.15697     -1.314720
   0.20930     -1.454179
   0.26162     -1.530095
   0.31395     -1.591636
   0.36627     -1.631999
   0.41860     -1.646406
   0.47092     -1.631505
   0.52325     -1.584882
   0.57557     -1.313608
   0.62790     -1.332572
   0.68022     -1.421633
   0.73255     -1.522327
   0.78487     -1.580941
   0.83720     -1.469061
   0.88952     -1.386494
   0.94185     -1.335440
   0.99417     -1.318125
   0.99417     -1.318125
   1.04650     -1.391392
   1.09882     -1.557915
   1.15115     -1.417924
   1.20347     -1.445355
   1.25580     -1.536046
   1.30812     -1.652513
   1.36045     -1.786441
   1.41277     -1.924406
   1.46510     -1.993702
   1.51742     -2.079137
   1.56975     -2.184890
   1.62207     -2.201626
   1.67440     -2.146885
   1.72672     -2.136764
   1.77905     -2.227152
   1.83137     -2.272926
   1.88370     -2.292532
   1.93602     -2.305664
   1.98835     -2.310267
   1.98835     -2.310267
   2.06235     -2.317716
   2.13635     -2.340015
   2.21035     -2.237033
   2.28434     -2.109492
   2.35834     -2.086303
   2.43234     -2.323658
   2.50634     -2.495396
   2.58034     -2.319619
   2.65434     -2.389565
   2.72834     -2.450945
   2.80234     -2.246806
   2.87633     -2.070660
   2.95033     -1.941390
   3.02433     -1.797072
   3.09833     -1.633218
   3.17233     -1.452240
   3.24633     -1.256750
   3.32033     -1.051700
   3.39433     -0.881099
 
 
# Band-Index   12
   3.39433     -0.792624
   3.32033     -0.779940
   3.24633     -0.745267
   3.17233     -0.786082
   3.09833     -0.801272
   3.02433     -1.095774
   2.95033     -1.480241
   2.87633     -1.825814
   2.80234     -2.025995
   2.72834     -2.055519
   2.65434     -2.027522
   2.58034     -2.276861
   2.50634     -2.247126
   2.43234     -2.141420
   2.35834     -1.980417
   2.28434     -1.754996
   2.21035     -1.441242
   2.13635     -1.164548
   2.06235     -0.973601
   1.98835     -0.905233
   1.98835     -0.905233
   1.93602     -0.933973
   1.88370     -1.017671
   1.83137     -1.147986
   1.77905     -1.307120
   1.72672     -1.454618
   1.67440     -1.503833
   1.62207     -1.559325
   1.56975     -1.684070
   1.51742     -1.829174
   1.46510     -1.858824
   1.41277     -1.630639
   1.36045     -1.398540
   1.30812     -1.167664
   1.25580     -1.137991
   1.20347     -1.274268
   1.15115     -1.382463
   1.09882     -1.343972
   1.04650     -1.324131
   0.99417     -1.268440
   0.99417     -1.268440
   0.94185     -1.260686
   0.88952     -1.237732
   0.83720     -1.200497
   0.78487     -1.150543
   0.73255     -1.126806
   0.68022     -1.257976
   0.62790     -1.327748
   0.57557     -1.234680
   0.52325     -1.139965
   0.47092     -1.039510
   0.41860     -0.938077
   0.36627     -0.909519
   0.31395     -0.880495
   0.26162     -0.831695
   0.20930     -0.762786
   0.15697     -0.706092
   0.10465     -0.744078
   0.05232     -0.778935
   0.00000     -0.792624
 
 
# Band-Index   13
   0.00000     -0.792624
   0.05232     -0.693479
   0.10465     -0.582293
   0.15697     -0.674427
   0.20930     -0.689309
   0.26162     -0.708865
   0.31395     -0.763145
   0.36627     -0.842905
   0.41860     -0.919537
   0.47092     -0.949647
   0.52325     -1.087054
   0.57557     -1.215870
   0.62790     -1.002493
   0.68022     -1.022276
   0.73255     -1.090142
   0.78487     -1.042546
   0.83720     -1.018325
   0.88952     -1.024712
   0.94185     -1.036391
   0.99417     -1.041422
   0.99417     -1.041422
   1.04650     -0.918832
   1.09882     -0.730227
   1.15115     -0.592568
   1.20347     -0.740246
   1.25580     -0.944891
   1.30812     -1.013760
   1.36045     -0.900208
   1.41277     -0.788586
   1.46510     -0.798449
   1.51742     -1.024662
   1.56975     -1.234253
   1.62207     -1.409089
   1.67440     -1.444874
   1.72672     -1.330021
   1.77905     -1.211602
   1.83137     -1.096053
   1.88370     -0.996811
   1.93602     -0.929244
   1.98835     -0.905233
   1.98835     -0.905233
   2.06235     -0.942277
   2.13635     -1.053090
   2.21035     -1.236120
   2.28434     -1.486663
   2.35834     -1.794231
   2.43234     -1.930973
   2.50634     -1.914661
   2.58034     -1.947297
   2.65434     -2.010530
   2.72834     -1.701072
   2.80234     -1.363839
   2.87633     -1.064997
   2.95033     -0.873912
   3.02433     -0.806246
   3.09833     -0.727429
   3.17233     -0.696779
   3.24633     -0.684483
   3.32033     -0.635873
   3.39433     -0.792624
 
 
# Band-Index   14
   3.39433     -0.425013
   3.32033     -0.508942
   3.24633     -0.479917
   3.17233     -0.454926
   3.09833     -0.643108
