#K-Path(1/A) Energy-Level(eV)
# NKPTS & NBANDS:  60  40
# Band-Index    1
   0.00000     -8.804210
   0.05232     -8.788741
   0.10465     -8.742476
   0.15697     -8.665951
   0.20930     -8.560047
   0.26162     -8.425986
   0.31395     -8.265433
   0.36627     -8.080430
   0.41860     -7.873552
   0.47092     -7.647903
   0.52325     -7.407215
   0.57557     -7.156162
   0.62790     -6.900508
   0.68022     -6.647611
   0.73255     -6.407293
   0.78487     -6.192584
   0.83720     -6.019385
   0.88952     -5.900683
   0.94185     -5.855981
   0.99417     -5.856177
   0.99417     -5.856177
   1.04650     -5.839626
   1.09882     -5.790231
   1.15115     -5.708746
   1.20347     -5.596468
   1.25580     -5.460678
   1.30812     -5.328377
   1.36045     -5.201413
   1.41277     -5.107705
   1.46510     -5.075079
   1.51742     -5.102421
   1.56975     -5.165133
   1.62207     -5.241773
   1.67440     -5.319837
   1.72672     -5.392381
   1.77905     -5.455366
   1.83137     -5.506296
   1.88370     -5.543616
   1.93602     -5.566363
   1.98835     -5.574006
   1.98835     -5.574006
   2.06235     -5.559424
   2.13635     -5.524185
   2.21035     -5.488491
   2.28434     -5.470523
   2.35834     -5.487858
   2.43234     -5.564283
   2.50634     -5.723287
   2.58034     -5.972174
   2.65434     -6.294293
   2.72834     -6.659540
   2.80234     -7.038594
   2.87633     -7.408569
   2.95033     -7.752937
   3.02433     -8.059790
   3.09833     -8.320602
   3.17233     -8.529150
   3.24633     -8.681015
   3.32033     -8.773280
   3.39433     -8.804210
 
 
# Band-Index    2
   3.39433     -6.918070
   3.32033     -6.895070
   3.24633     -6.826242
   3.17233     -6.712106
   3.09833     -6.553626
   3.02433     -6.352372
   2.95033     -6.110796
   2.87633     -5.832419
   2.80234     -5.522429
   2.72834     -5.188108
   2.65434     -4.839937
   2.58034     -4.493895
   2.50634     -4.454886
   2.43234     -4.686038
   2.35834     -4.905655
   2.28434     -5.097302
   2.21035     -5.248581
   2.13635     -5.350461
   2.06235     -5.403988
   1.98835     -5.419995
   1.98835     -5.419995
   1.93602     -5.412245
   1.88370     -5.389200
   1.83137     -5.351458
   1.77905     -5.300077
   1.72672     -5.236681
   1.67440     -5.163671
   1.62207     -5.084466
   1.56975     -5.003939
   1.51742     -4.928866
   1.46510     -4.868155
   1.41277     -4.889706
   1.36045     -5.097828
   1.30812     -5.287933
   1.25580     -5.455319
   1.20347     -5.581527
   1.15115     -5.681747
   1.09882     -5.756164
   1.04650     -5.801834
   0.99417     -5.817221
   0.99417     -5.817221
   0.94185     -5.836657
   0.88952     -5.856033
   0.83720     -5.858189
   0.78487     -5.865468
   0.73255     -5.881845
   0.68022     -5.911719
   0.62790     -5.958870
   0.57557     -6.025306
   0.52325     -6.110401
   0.47092     -6.210822
   0.41860     -6.321226
   0.36627     -6.435430
   0.31395     -6.547288
   0.26162     -6.651195
   0.20930     -6.742421
   0.15697     -6.817172
   0.10465     -6.872566
   0.05232     -6.906595
   0.00000     -6.918070
 
 
# Band-Index    3
   0.00000     -5.410144
   0.05232     -5.399008
   0.10465     -5.368270
   0.15697     -5.325629
   0.20930     -5.278742
   0.26162     -5.230649
   0.31395     -5.184221
   0.36627     -5.145098
   0.41860     -5.120552
   0.47092     -5.115668
   0.52325     -5.129901
   0.57557     -5.157761
   0.62790     -5.191813
   0.68022     -5.224581
   0.73255     -5.248696
   0.78487     -5.256347
   0.83720     -5.240280
   0.88952     -5.200649
   0.94185     -5.155610
   0.99417     -5.135436
   0.99417     -5.135436
   1.04650     -5.124002
   1.09882     -5.090819
   1.15115     -5.039412
   1.20347     -4.976215
   1.25580     -4.911135
   1.30812     -4.857251
   1.36045     -4.828047
   1.41277     -4.831914
   1.46510     -4.669864
   1.51742     -4.446890
   1.56975     -4.232488
   1.62207     -4.041670
   1.67440     -4.002259
   1.72672     -4.012900
   1.77905     -4.015211
   1.83137     -4.010028
   1.88370     -3.999949
   1.93602     -3.989747
   1.98835     -3.985351
   1.98835     -3.985351
   2.06235     -3.993848
   2.13635     -4.010520
   2.21035     -4.018882
   2.28434     -4.008687
   2.35834     -3.982749
   2.43234     -3.989474
   2.50634     -4.180147
   2.58034     -4.237536
   2.65434     -4.109398
   2.72834     -4.251052
   2.80234     -4.414645
   2.87633     -4.583735
   2.95033     -4.749847
   3.02433     -4.905321
   3.09833     -5.051399
   3.17233     -5.207250
   3.24633     -5.319624
   3.32033     -5.387463
   3.39433     -5.410144
 
 
# Band-Index    4
   3.39433     -5.314676
   3.32033     -5.296719
   3.24633     -5.243657
   3.17233     -5.157897
   3.09833     -5.043377
   3.02433     -4.853629
   2.95033     -4.616094
   2.87633     -4.341727
   2.80234     -4.034700
   2.72834     -3.991977
   2.65434     -4.054290
   2.58034     -3.951765
   2.50634     -3.816491
   2.43234     -3.712998
   2.35834     -3.595003
   2.28434     -3.539824
   2.21035     -3.547814
   2.13635     -3.564874
   2.06235     -3.563795
   1.98835     -3.553335
   1.98835     -3.553335
   1.93602     -3.572780
   1.88370     -3.612365
   1.83137     -3.657066
   1.77905     -3.709424
   1.72672     -3.781586
   1.67440     -3.889396
   1.62207     -3.983797
   1.56975     -3.959233
   1.51742     -4.080473
   1.46510     -4.219052
   1.41277     -4.293284
   1.36045     -4.301311
   1.30812     -4.272904
   1.25580     -4.238762
   1.20347     -4.215873
   1.15115     -4.208176
   1.09882     -4.210942
   1.04650     -4.216586
   0.99417     -4.219184
   0.99417     -4.219184
   0.94185     -4.223205
   0.88952     -4.236272
   0.83720     -4.256329
   0.78487     -4.280747
   0.73255     -4.305869
   0.68022     -4.327403
   0.62790     -4.341134
   0.57557     -4.371113
   0.52325     -4.465433
   0.47092     -4.559559
   0.41860     -4.657846
   0.36627     -4.772311
   0.31395     -4.900885
   0.26162     -5.026812
   0.20930     -5.136432
   0.15697     -5.220843
   0.10465     -5.276048
   0.05232     -5.305509
   0.00000     -5.314676
 
 
# Band-Index    5
   0.00000     -4.787714
   0.05232     -4.780476
   0.10465     -4.759624
   0.15697     -4.727547
   0.20930     -4.687445
   0.26162     -4.641615
   0.31395     -4.588233
   0.36627     -4.516896
   0.41860     -4.410621
   0.47092     -4.315685
   0.52325     -4.335091
   0.57557     -4.344010
   0.62790     -4.281786
   0.68022     -4.207278
   0.73255     -4.157565
   0.78487     -4.138229
   0.83720     -4.147474
   0.88952     -4.175596
   0.94185     -4.205921
   0.99417     -4.218676
   0.99417     -4.218676
   1.04650     -4.206265
   1.09882     -4.170230
   1.15115     -4.114420
   1.20347     -4.046145
   1.25580     -3.977041
   1.30812     -3.921912
   1.36045     -3.892447
   1.41277     -3.889775
   1.46510     -3.906030
   1.51742     -3.931659
   1.56975     -3.905985
   1.62207     -3.723448
   1.67440     -3.552873
   1.72672     -3.407457
   1.77905     -3.310690
   1.83137     -3.406808
   1.88370     -3.483954
   1.93602     -3.535154
   1.98835     -3.553335
   1.98835     -3.553335
   2.06235     -3.544328
   2.13635     -3.517551
   2.21035     -3.473756
   2.28434     -3.450569
   2.35834     -3.561627
   2.43234     -3.684297
   2.50634     -3.716768
   2.58034     -3.626152
   2.65434     -3.513449
   2.72834     -3.701746
   2.80234     -4.026129
   2.87633     -4.136549
   2.95033     -4.280276
   3.02433     -4.425232
   3.09833     -4.553194
   3.17233     -4.655536
   3.24633     -4.729062
   3.32033     -4.773080
   3.39433     -4.787714
 
 
# Band-Index    6
   3.39433     -4.135503
   3.32033     -4.118724
   3.24633     -4.072702
   3.17233     -4.005691
   3.09833     -3.914537
   3.02433     -3.802142
   2.95033     -3.672649
   2.87633     -3.531813
   2.80234     -3.390633
   2.72834     -3.416817
   2.65434     -3.358869
   2.58034     -3.130166
   2.50634     -3.180771
   2.43234     -3.260380
   2.35834     -3.341692
   2.28434     -3.414330
   2.21035     -3.346000
   2.13635     -3.245151
   2.06235     -3.283713
   1.98835     -3.349554
   1.98835     -3.349554
   1.93602     -3.315898
   1.88370     -3.235177
   1.83137     -3.212376
   1.77905     -3.293806
   1.72672     -3.218303
   1.67440     -3.219997
   1.62207     -3.209295
   1.56975     -3.186245
   1.51742     -3.151516
   1.46510     -3.106686
   1.41277     -3.068258
   1.36045     -3.135343
   1.30812     -3.169791
   1.25580     -3.161170
   1.20347     -3.148632
   1.15115     -3.132740
   1.09882     -3.113532
   1.04650     -3.098915
   0.99417     -3.093533
   0.99417     -3.093533
   0.94185     -3.084382
   0.88952     -3.056989
   0.83720     -3.075733
   0.78487     -3.263130
   0.73255     -3.439684
   0.68022     -3.607668
   0.62790     -3.772218
   0.57557     -3.937980
   0.52325     -4.105229
   0.47092     -4.267627
   0.41860     -4.288765
   0.36627     -4.258043
   0.31395     -4.227027
   0.26162     -4.198490
   0.20930     -4.174275
   0.15697     -4.155319
   0.10465     -4.141971
   0.05232     -4.134581
   0.00000     -4.135503
 
 
# Band-Index    7
   0.00000     -4.127410
   0.05232     -4.113049
   0.10465     -4.060119
   0.15697     -3.971822
   0.20930     -3.849780
   0.26162     -3.695862
   0.31395     -3.512628
   0.36627     -3.303502
   0.41860     -3.073114
   0.47092     -2.827702
   0.52325     -2.575633
   0.57557     -2.529542
   0.62790     -2.657406
   0.68022     -2.770517
   0.73255     -2.867762
   0.78487     -2.948304
   0.83720     -3.011532
   0.88952     -2.970786
   0.94185     -2.995034
   0.99417     -3.003146
   0.99417     -3.003146
   1.04650     -3.012845
   1.09882     -3.040444
   1.15115     -3.081102
   1.20347     -3.125875
   1.25580     -3.150024
   1.30812     -3.124683
   1.36045     -3.066966
   1.41277     -3.020984
   1.46510     -2.912003
   1.51742     -2.876062
   1.56975     -2.902309
   1.62207     -2.981781
   1.67440     -3.088431
   1.72672     -3.202026
   1.77905     -3.205010
   1.83137     -3.182330
   1.88370     -3.159503
   1.93602     -3.130902
   1.98835     -3.121031
   1.98835     -3.121031
   2.06235     -3.158908
   2.13635     -3.130101
   2.21035     -3.100971
   2.28434     -3.086127
   2.35834     -3.068300
   2.43234     -3.049557
   2.50634     -3.037848
   2.58034     -3.090155
   2.65434     -3.154680
   2.72834     -3.253873
   2.80234     -3.387869
   2.87633     -3.465295
   2.95033     -3.598855
   3.02433     -3.744093
   3.09833     -3.877268
   3.17233     -3.987375
   3.24633     -4.068850
   3.32033     -4.113642
   3.39433     -4.127410
 
 
# Band-Index    8
   3.39433     -2.422942
   3.32033     -2.435350
   3.24633     -2.470100
   3.17233     -2.521074
   3.09833     -2.581147
   3.02433     -2.644184
   2.95033     -2.705722
   2.87633     -2.762815
   2.80234     -2.813390
   2.72834     -2.854689
   2.65434     -2.876631
   2.58034     -2.803165
   2.50634     -2.649193
   2.43234     -2.716055
   2.35834     -2.769183
   2.28434     -2.728767
   2.21035     -2.931654
   2.13635     -3.111991
   2.06235     -3.118754
   1.98835     -3.121031
   1.98835     -3.121031
   1.93602     -3.130307
   1.88370     -3.154886
   1.83137     -3.127423
   1.77905     -3.000720
   1.72672     -2.870250
   1.67440     -2.854464
   1.62207     -2.883082
   1.56975     -2.868671
   1.51742     -2.813043
   1.46510     -2.894485
   1.41277     -2.987165
   1.36045     -2.979815
   1.30812     -2.909827
   1.25580     -2.834020
   1.20347     -2.756331
   1.15115     -2.681979
   1.09882     -2.618532
   1.04650     -2.575094
   0.99417     -2.559554
   0.99417     -2.559554
   0.94185     -2.684096
   0.88952     -2.879437
   0.83720     -2.930647
   0.78487     -2.875011
   0.73255     -2.804435
   0.68022     -2.719598
   0.62790     -2.621306
   0.57557     -2.510477
   0.52325     -2.388404
   0.47092     -2.255302
   0.41860     -2.113249
   0.36627     -2.235763
   0.31395     -2.352634
   0.26162     -2.422688
   0.20930     -2.453251
   0.15697     -2.455597
   0.10465     -2.443120
   0.05232     -2.428924
   0.00000     -2.422942
 
 
# Band-Index    9
   0.00000     -1.225739
   0.05232     -1.245633
   0.10465     -1.299372
   0.15697     -1.373703
   0.20930     -1.480782
   0.26162     -1.645293
   0.31395     -1.806732
   0.36627     -1.963250
   0.41860     -2.075219
   0.47092     -2.236023
   0.52325     -2.388107
   0.57557     -2.327808
   0.62790     -2.096837
   0.68022     -1.893491
   0.73255     -1.722153
   0.78487     -1.660200
   0.83720     -1.818390
   0.88952     -1.999443
   0.94185     -2.188496
   0.99417     -2.311474
   0.99417     -2.311474
   1.04650     -2.346698
   1.09882     -2.421381
   1.15115     -2.490163
   1.20347     -2.524399
   1.25580     -2.508336
   1.30812     -2.437494
   1.36045     -2.472642
   1.41277     -2.609225
   1.46510     -2.724321
   1.51742     -2.709289
   1.56975     -2.499145
   1.62207     -2.483702
   1.67440     -2.656214
   1.72672     -2.719907
   1.77905     -2.621332
   1.83137     -2.503406
   1.88370     -2.442132
   1.93602     -2.512729
   1.98835     -2.538458
   1.98835     -2.538458
   2.06235     -2.489624
   2.13635     -2.428745
   2.21035     -2.557654
   2.28434     -2.676864
   2.35834     -2.495457
   2.43234     -2.570459
   2.50634     -2.554682
   2.58034     -2.703762
   2.65434     -2.686772
   2.72834     -2.595083
   2.80234     -2.542840
   2.87633     -2.446430
   2.95033     -2.250228
   3.02433     -1.999489
   3.09833     -1.778084
   3.17233     -1.591784
   3.24633     -1.417193
   3.32033     -1.280591
   3.39433     -1.225739
 
 
# Band-Index   10
   3.39433     -1.225739
   3.32033     -1.236365
   3.24633     -1.297210
   3.17233     -1.468506
   3.09833     -1.725674
   3.02433     -1.963529
   2.95033     -2.141977
   2.87633     -2.309774
   2.80234     -2.463205
   2.72834     -2.507240
   2.65434     -2.568856
   2.58034     -2.580179
   2.50634     -2.502846
   2.43234     -2.327592
   2.35834     -2.494201
   2.28434     -2.429049
   2.21035     -2.377586
   2.13635     -2.374283
   2.06235     -2.341366
   1.98835     -2.310828
   1.98835     -2.310828
   1.93602     -2.334378
   1.88370     -2.401845
   1.83137     -2.341009
   1.77905     -2.250767
   1.72672     -2.229322
   1.67440     -2.213180
   1.62207     -2.293089
   1.56975     -2.288914
   1.51742     -2.139585
   1.46510     -2.049339
   1.41277     -2.163851
   1.36045     -2.317962
   1.30812     -2.318271
   1.25580     -2.149166
   1.20347     -1.968154
   1.15115     -1.778191
   1.09882     -1.583157
   1.04650     -1.672625
   0.99417     -1.720412
   0.99417     -1.720412
   0.94185     -1.712577
   0.88952     -1.689023
   0.83720     -1.649633
   0.78487     -1.594280
   0.73255     -1.529548
   0.68022     -1.435684
   0.62790     -1.393118
   0.57557     -1.505186
   0.52325     -1.601583
   0.47092     -1.856366
   0.41860     -2.069635
   0.36627     -1.910018
   0.31395     -1.746220
   0.26162     -1.591938
   0.20930     -1.457264
   0.15697     -1.351587
   0.10465     -1.279300
   0.05232     -1.238669
   0.00000     -1.225739
 
 
# Band-Index   11
   0.00000     -0.881808
   0.05232     -0.995317
   0.10465     -1.151996
   0.15697     -1.315399
   0.20930     -1.454697
   0.26162     -1.530534
   0.31395     -1.592002
   0.36627     -1.632319
   0.41860     -1.646687
   0.47092     -1.631739
   0.52325     -1.585069
   0.57557     -1.314515
   0.62790     -1.333150
   0.68022     -1.422451
   0.73255     -1.522908
   0.78487     -1.581449
   0.83720     -1.469541
   0.88952     -1.386958
   0.94185     -1.335904
   0.99417     -1.318583
   0.99417     -1.318583
   1.04650     -1.391889
   1.09882     -1.558505
   1.15115     -1.418514
   1.20347     -1.445890
   1.25580     -1.536620
   1.30812     -1.653117
   1.36045     -1.787069
   1.41277     -1.925054
   1.46510     -1.994306
   1.51742     -2.079720
   1.56975     -2.185530
   1.62207     -2.202256
   1.67440     -2.147477
   1.72672     -2.137335
   1.77905     -2.227713
   1.83137     -2.273494
   1.88370     -2.293108
   1.93602     -2.306232
   1.98835     -2.310828
   1.98835     -2.310828
   2.06235     -2.318278
   2.13635     -2.340572
   2.21035     -2.237617
   2.28434     -2.110066
   2.35834     -2.086907
   2.43234     -2.324263
   2.50634     -2.496003
   2.58034     -2.320139
   2.65434     -2.390133
   2.72834     -2.451588
   2.80234     -2.247465
   2.87633     -2.071323
   2.95033     -1.942082
   3.02433     -1.797771
   3.09833     -1.633915
   3.17233     -1.452935
   3.24633     -1.257443
   3.32033     -1.052387
   3.39433     -0.881808
 
 
# Band-Index   12
   3.39433     -0.793218
   3.32033     -0.780529
   3.24633     -0.745846
   3.17233     -0.784271
   3.09833     -0.800402
   3.02433     -1.097604
   2.95033     -1.481505
   2.87633     -1.826825
   2.80234     -2.026853
   2.72834     -2.056296
   2.65434     -2.028059
   2.58034     -2.277439
   2.50634     -2.247709
   2.43234     -2.142082
   2.35834     -1.981024
   2.28434     -1.755610
   2.21035     -1.441882
   2.13635     -1.165165
   2.06235     -0.974242
   1.98835     -0.905857
   1.98835     -0.905857
   1.93602     -0.934600
   1.88370     -1.018319
   1.83137     -1.148623
   1.77905     -1.307755
   1.72672     -1.455276
   1.67440     -1.504497
   1.62207     -1.559938
   1.56975     -1.684669
   1.51742     -1.829777
   1.46510     -1.859407
   1.41277     -1.631222
   1.36045     -1.399123
   1.30812     -1.168248
   1.25580     -1.138570
   1.20347     -1.274857
   1.15115     -1.382964
   1.09882     -1.344454
   1.04650     -1.324597
   0.99417     -1.268980
   0.99417     -1.268980
   0.94185     -1.261229
   0.88952     -1.238272
   0.83720     -1.201034
   0.78487     -1.151084
   0.73255     -1.126827
   0.68022     -1.258026
   0.62790     -1.328705
   0.57557     -1.235718
   0.52325     -1.141314
   0.47092     -1.041184
   0.41860     -0.940135
   0.36627     -0.908248
   0.31395     -0.878723
   0.26162     -0.829279
   0.20930     -0.759526
   0.15697     -0.707416
   0.10465     -0.744904
   0.05232     -0.779574
   0.00000     -0.793218
 
 
# Band-Index   13
   0.00000     -0.793218
   0.05232     -0.694106
   0.10465     -0.582923
   0.15697     -0.670032
   0.20930     -0.691421
   0.26162     -0.711548
   0.31395     -0.765883
   0.36627     -0.845358
   0.41860     -0.918660
   0.47092     -0.950226
   0.52325     -1.087633
   0.57557     -1.216451
   0.62790     -1.003389
   0.68022     -1.022821
   0.73255     -1.090685
   0.78487     -1.042608
   0.83720     -1.018483
   0.88952     -1.024963
   0.94185     -1.036691
   0.99417     -1.041731
   0.99417     -1.041731
   1.04650     -0.919179
   1.09882     -0.730575
   1.15115     -0.593086
   1.20347     -0.740835
   1.25580     -0.945481
   1.30812     -1.014332
   1.36045     -0.900772
   1.41277     -0.789152
   1.46510     -0.799053
   1.51742     -1.025278
   1.56975     -1.234884
   1.62207     -1.409735
   1.67440     -1.445492
   1.72672     -1.330638
   1.77905     -1.212212
   1.83137     -1.096676
   1.88370     -0.997453
   1.93602     -0.929869
   1.98835     -0.905857
   1.98835     -0.905857
   2.06235     -0.942900
   2.13635     -1.053713
   2.21035     -1.236752
   2.28434     -1.487306
   2.35834     -1.794892
   2.43234     -1.931573
   2.50634     -1.915277
   2.58034     -1.947960
   2.65434     -2.011241
   2.72834     -1.701611
   2.80234     -1.364390
   2.87633     -1.065512
   2.95033     -0.874153
   3.02433     -0.805971
   3.09833     -0.730448
   3.17233     -0.697347
   3.24633     -0.680615
   3.32033     -0.636593
   3.39433     -0.793218
 
 
# Band-Index   14
   3.39433     -0.413804
   3.32033     -0.500935
   3.24633     -0.480894
   3.17233     -0.458879
   3.09833     -0.643661
